; The collision integrals Q_{i,j}^{11} are exponential fit function obtained from 
; Transport properties of high-temperature Jupiter atmosphere components, D. Bruno, C. Catalfamo, M. Capitelli, G. Colonna, O. De Pascale et al., Phys. Plasmas 17, 112315 (2010), doi: 10.1063/1.3495980, Published by the American Institute of Physics
; 
; 
; Bruno et al. (2010) is computing the collision integrals Q11 by considering the parameters from table IV using a phenomenological potential introduced in Eq. (8)
;
;
; 1 atomic unit of square distance = 2.80e-17 cm^2
; 1eV = 11604K

2.80e-17


;        E             T             Q11
;       (eV)         (K)         (a.u.)

0.0862174       1000       90.2992
0.0948391       1100       85.4427
0.103461       1200       81.3513
0.112083       1300       77.8646
0.120704       1400       74.8635
0.129326       1500       72.2576
0.137948       1600       69.9772
0.14657       1700       67.9677
0.155191       1800       66.1857
0.163813       1900       64.5963
0.172435       2000       63.1712
0.181056       2100       61.8873
0.189678       2200       60.7253
0.1983       2300       59.6693
0.206922       2400       58.7059
0.215543       2500       57.8237
0.224165       2600       57.0132
0.232787       2700       56.266
0.241409       2800       55.5752
0.25003       2900       54.9346
0.258652       3000       54.339
0.267274       3100       53.7838
0.275896       3200       53.265
0.284517       3300       52.779
0.293139       3400       52.3228
0.301761       3500       51.8935
0.310383       3600       51.4889
0.319004       3700       51.1067
0.327626       3800       50.745
0.336248       3900       50.402
0.34487       4000       50.0764
0.353491       4100       49.7666
0.362113       4200       49.4715
0.370735       4300       49.1899
0.379356       4400       48.9208
0.387978       4500       48.6633
0.3966       4600       48.4165
0.405222       4700       48.1798
0.413843       4800       47.9523
0.422465       4900       47.7336
0.431087       5000       47.5229
0.439709       5100       47.3198
0.44833       5200       47.1239
0.456952       5300       46.9346
0.465574       5400       46.7515
0.474196       5500       46.5743
0.482817       5600       46.4026
0.491439       5700       46.2362
0.500061       5800       46.0746
0.508683       5900       45.9177
0.517304       6000       45.7652
0.525926       6100       45.6168
0.534548       6200       45.4723
0.543169       6300       45.3315
0.551791       6400       45.1943
0.560413       6500       45.0605
0.569035       6600       44.9298
0.577656       6700       44.8022
0.586278       6800       44.6774
0.5949       6900       44.5555
0.603522       7000       44.4361
0.612143       7100       44.3193
0.620765       7200       44.2048
0.629387       7300       44.0927
0.638009       7400       43.9827
0.64663       7500       43.8749
0.655252       7600       43.7691
0.663874       7700       43.6652
0.672496       7800       43.5631
0.681117       7900       43.4629
0.689739       8000       43.3643
0.698361       8100       43.2674
0.706983       8200       43.1721
0.715604       8300       43.0783
0.724226       8400       42.986
0.732848       8500       42.8952
0.741469       8600       42.8056
0.750091       8700       42.7174
0.758713       8800       42.6305
0.767335       8900       42.5449
0.775956       9000       42.4604
0.784578       9100       42.377
0.7932       9200       42.2948
0.801822       9300       42.2137
0.810443       9400       42.1336
0.819065       9500       42.0546
0.827687       9600       41.9765
0.836309       9700       41.8994
0.84493       9800       41.8232
0.853552       9900       41.7479
0.862174       10000       41.6735
0.870796       10100       41.6
0.879417       10200       41.5272
0.888039       10300       41.4553
0.896661       10400       41.3842
0.905282       10500       41.3138
0.913904       10600       41.2442
0.922526       10700       41.1753
0.931148       10800       41.1072
0.939769       10900       41.0397
0.948391       11000       40.9729
0.957013       11100       40.9067
0.965635       11200       40.8412
0.974256       11300       40.7763
0.982878       11400       40.712
0.9915       11500       40.6484
1.00012       11600       40.5853
1.00874       11700       40.5227
1.01737       11800       40.4608
1.02599       11900       40.3994
1.03461       12000       40.3385
1.04323       12100       40.2782
1.05185       12200       40.2183
1.06047       12300       40.159
1.0691       12400       40.1002
1.07772       12500       40.0418
1.08634       12600       39.984
1.09496       12700       39.9266
1.10358       12800       39.8696
1.1122       12900       39.8131
1.12083       13000       39.7571
1.12945       13100       39.7014
1.13807       13200       39.6462
1.14669       13300       39.5914
1.15531       13400       39.5371
1.16393       13500       39.4831
1.17256       13600       39.4295
1.18118       13700       39.3763
1.1898       13800       39.3235
1.19842       13900       39.271
1.20704       14000       39.219
1.21567       14100       39.1673
1.22429       14200       39.1159
1.23291       14300       39.0649
1.24153       14400       39.0143
1.25015       14500       38.964
1.25877       14600       38.914
1.2674       14700       38.8643
1.27602       14800       38.815
1.28464       14900       38.766
1.29326       15000       38.7173
1.30188       15100       38.6689
1.3105       15200       38.6209
1.31913       15300       38.5731
1.32775       15400       38.5256
1.33637       15500       38.4785
1.34499       15600       38.4316
1.35361       15700       38.385
1.36223       15800       38.3387
1.37086       15900       38.2926
1.37948       16000       38.2469
1.3881       16100       38.2014
1.39672       16200       38.1561
1.40534       16300       38.1112
1.41397       16400       38.0665
1.42259       16500       38.022
1.43121       16600       37.9778
1.43983       16700       37.9339
1.44845       16800       37.8902
1.45707       16900       37.8468
1.4657       17000       37.8035
1.47432       17100       37.7606
1.48294       17200       37.7178
1.49156       17300       37.6753
1.50018       17400       37.6331
1.5088       17500       37.591
1.51743       17600       37.5492
1.52605       17700       37.5076
1.53467       17800       37.4662
1.54329       17900       37.4251
1.55191       18000       37.3841
1.56053       18100       37.3434
1.56916       18200       37.3029
1.57778       18300       37.2626
1.5864       18400       37.2225
1.59502       18500       37.1825
1.60364       18600       37.1428
1.61227       18700       37.1033
1.62089       18800       37.064
1.62951       18900       37.0249
1.63813       19000       36.986
1.64675       19100       36.9473
1.65537       19200       36.9087
1.664       19300       36.8704
1.67262       19400       36.8322
1.68124       19500       36.7942
1.68986       19600       36.7564
1.69848       19700       36.7188
1.7071       19800       36.6814
1.71573       19900       36.6441
1.72435       20000       36.607
1.73297       20100       36.5701
1.74159       20200       36.5333
1.75021       20300       36.4968
1.75883       20400       36.4603
1.76746       20500       36.4241
1.77608       20600       36.388
1.7847       20700       36.3521
1.79332       20800       36.3164
1.80194       20900       36.2808
1.81056       21000       36.2453
1.81919       21100       36.21
1.82781       21200       36.1749
1.83643       21300       36.14
1.84505       21400       36.1052
1.85367       21500       36.0705
1.8623       21600       36.036
1.87092       21700       36.0016
1.87954       21800       35.9674
1.88816       21900       35.9334
1.89678       22000       35.8994
1.9054       22100       35.8657
1.91403       22200       35.832
1.92265       22300       35.7985
1.93127       22400       35.7652
1.93989       22500       35.732
1.94851       22600       35.6989
1.95713       22700       35.666
1.96576       22800       35.6332
1.97438       22900       35.6005
1.983       23000       35.568
1.99162       23100       35.5356
2.00024       23200       35.5034
2.00886       23300       35.4712
2.01749       23400       35.4392
2.02611       23500       35.4074
2.03473       23600       35.3756
2.04335       23700       35.344
2.05197       23800       35.3125
2.0606       23900       35.2812
2.06922       24000       35.2499
2.07784       24100       35.2188
2.08646       24200       35.1878
2.09508       24300       35.1569
2.1037       24400       35.1262
2.11233       24500       35.0955
2.12095       24600       35.065
2.12957       24700       35.0346
2.13819       24800       35.0044
2.14681       24900       34.9742
2.15543       25000       34.9441
2.16406       25100       34.9142
2.17268       25200       34.8844
2.1813       25300       34.8547
2.18992       25400       34.8251
2.19854       25500       34.7956
2.20716       25600       34.7662
2.21579       25700       34.737
2.22441       25800       34.7078
2.23303       25900       34.6787
2.24165       26000       34.6498
2.25027       26100       34.621
2.2589       26200       34.5922
2.26752       26300       34.5636
2.27614       26400       34.5351
2.28476       26500       34.5067
2.29338       26600       34.4784
2.302       26700       34.4501
2.31063       26800       34.422
2.31925       26900       34.394
2.32787       27000       34.3661
2.33649       27100       34.3383
2.34511       27200       34.3106
2.35373       27300       34.283
2.36236       27400       34.2555
2.37098       27500       34.228
2.3796       27600       34.2007
2.38822       27700       34.1735
2.39684       27800       34.1464
2.40546       27900       34.1193
2.41409       28000       34.0924
2.42271       28100       34.0655
2.43133       28200       34.0388
2.43995       28300       34.0121
2.44857       28400       33.9855
2.4572       28500       33.959
2.46582       28600       33.9326
2.47444       28700       33.9063
2.48306       28800       33.8801
2.49168       28900       33.854
2.5003       29000       33.828
2.50893       29100       33.802
2.51755       29200       33.7761
2.52617       29300       33.7504
2.53479       29400       33.7247
2.54341       29500       33.6991
2.55203       29600       33.6735
2.56066       29700       33.6481
2.56928       29800       33.6227
2.5779       29900       33.5975
2.58652       30000       33.5723
2.59514       30100       33.5472
2.60376       30200       33.5222
2.61239       30300       33.4972
2.62101       30400       33.4723
2.62963       30500       33.4476
2.63825       30600       33.4229
2.64687       30700       33.3982
2.6555       30800       33.3737
2.66412       30900       33.3492
2.67274       31000       33.3248
2.68136       31100       33.3005
2.68998       31200       33.2763
2.6986       31300       33.2521
2.70723       31400       33.2281
2.71585       31500       33.2041
2.72447       31600       33.1801
2.73309       31700       33.1563
2.74171       31800       33.1325
2.75033       31900       33.1088
2.75896       32000       33.0852
2.76758       32100       33.0616
2.7762       32200       33.0381
2.78482       32300       33.0147
2.79344       32400       32.9914
2.80206       32500       32.9681
2.81069       32600       32.9449
2.81931       32700       32.9218
2.82793       32800       32.8987
2.83655       32900       32.8757
2.84517       33000       32.8528
2.8538       33100       32.83
2.86242       33200       32.8072
2.87104       33300       32.7845
2.87966       33400       32.7618
2.88828       33500       32.7393
2.8969       33600       32.7167
2.90553       33700       32.6943
2.91415       33800       32.6719
2.92277       33900       32.6496
2.93139       34000       32.6274
2.94001       34100       32.6052
2.94863       34200       32.5831
2.95726       34300       32.5611
2.96588       34400       32.5391
2.9745       34500       32.5172
2.98312       34600       32.4953
2.99174       34700       32.4735
3.00036       34800       32.4518
3.00899       34900       32.4301
3.01761       35000       32.4085
3.02623       35100       32.387
3.03485       35200       32.3655
3.04347       35300       32.3441
3.0521       35400       32.3228
3.06072       35500       32.3015
3.06934       35600       32.2802
3.07796       35700       32.2591
3.08658       35800       32.238
3.0952       35900       32.2169
3.10383       36000       32.1959
3.11245       36100       32.175
3.12107       36200       32.1541
3.12969       36300       32.1333
3.13831       36400       32.1126
3.14693       36500       32.0919
3.15556       36600       32.0712
3.16418       36700       32.0506
3.1728       36800       32.0301
3.18142       36900       32.0097
3.19004       37000       31.9892
3.19866       37100       31.9689
3.20729       37200       31.9486
3.21591       37300       31.9283
3.22453       37400       31.9082
3.23315       37500       31.888
3.24177       37600       31.868
3.2504       37700       31.8479
3.25902       37800       31.828
3.26764       37900       31.808
3.27626       38000       31.7882
3.28488       38100       31.7684
3.2935       38200       31.7486
3.30213       38300       31.7289
3.31075       38400       31.7093
3.31937       38500       31.6897
3.32799       38600       31.6702
3.33661       38700       31.6507
3.34523       38800       31.6312
3.35386       38900       31.6118
3.36248       39000       31.5925
3.3711       39100       31.5732
3.37972       39200       31.554
3.38834       39300       31.5348
3.39696       39400       31.5157
3.40559       39500       31.4966
3.41421       39600       31.4776
3.42283       39700       31.4586
3.43145       39800       31.4397
3.44007       39900       31.4208
3.4487       40000       31.402
3.45732       40100       31.3832
3.46594       40200       31.3644
3.47456       40300       31.3458
3.48318       40400       31.3271
3.4918       40500       31.3085
3.50043       40600       31.29
3.50905       40700       31.2715
3.51767       40800       31.253
3.52629       40900       31.2346
3.53491       41000       31.2163
3.54353       41100       31.198
3.55216       41200       31.1797
3.56078       41300       31.1615
3.5694       41400       31.1434
3.57802       41500       31.1252
3.58664       41600       31.1072
3.59526       41700       31.0891
3.60389       41800       31.0711
3.61251       41900       31.0532
3.62113       42000       31.0353
3.62975       42100       31.0175
3.63837       42200       30.9997
3.647       42300       30.9819
3.65562       42400       30.9642
3.66424       42500       30.9465
3.67286       42600       30.9289
3.68148       42700       30.9113
3.6901       42800       30.8938
3.69873       42900       30.8763
3.70735       43000       30.8588
3.71597       43100       30.8414
3.72459       43200       30.824
3.73321       43300       30.8067
3.74183       43400       30.7894
3.75046       43500       30.7722
3.75908       43600       30.755
3.7677       43700       30.7378
3.77632       43800       30.7207
3.78494       43900       30.7036
3.79356       44000       30.6866
3.80219       44100       30.6696
3.81081       44200       30.6526
3.81943       44300       30.6357
3.82805       44400       30.6188
3.83667       44500       30.602
3.8453       44600       30.5852
3.85392       44700       30.5685
3.86254       44800       30.5517
3.87116       44900       30.5351
3.87978       45000       30.5184
3.8884       45100       30.5018
3.89703       45200       30.4853
3.90565       45300       30.4688
3.91427       45400       30.4523
3.92289       45500       30.4359
3.93151       45600       30.4195
3.94013       45700       30.4031
3.94876       45800       30.3868
3.95738       45900       30.3705
3.966       46000       30.3543
3.97462       46100       30.338
3.98324       46200       30.3219
3.99186       46300       30.3057
4.00049       46400       30.2896
4.00911       46500       30.2736
4.01773       46600       30.2576
4.02635       46700       30.2416
4.03497       46800       30.2256
4.0436       46900       30.2097
4.05222       47000       30.1938
4.06084       47100       30.178
4.06946       47200       30.1622
4.07808       47300       30.1464
4.0867       47400       30.1307
4.09533       47500       30.115
4.10395       47600       30.0994
4.11257       47700       30.0837
4.12119       47800       30.0681
4.12981       47900       30.0526
4.13843       48000       30.0371
4.14706       48100       30.0216
4.15568       48200       30.0061
4.1643       48300       29.9907
4.17292       48400       29.9753
4.18154       48500       29.96
4.19016       48600       29.9447
4.19879       48700       29.9294
4.20741       48800       29.9142
4.21603       48900       29.899
4.22465       49000       29.8838
4.23327       49100       29.8686
4.2419       49200       29.8535
4.25052       49300       29.8385
4.25914       49400       29.8234
4.26776       49500       29.8084
4.27638       49600       29.7934
4.285       49700       29.7785
4.29363       49800       29.7636
4.30225       49900       29.7487
4.31087       50000       29.7339
4.31949       50100       29.7191
4.32811       50200       29.7043
4.33673       50300       29.6895
4.34536       50400       29.6748
4.35398       50500       29.6601
4.3626       50600       29.6455
4.37122       50700       29.6308
4.37984       50800       29.6163
4.38846       50900       29.6017
4.39709       51000       29.5872
4.40571       51100       29.5727
4.41433       51200       29.5582
4.42295       51300       29.5438
4.43157       51400       29.5294
4.4402       51500       29.515
4.44882       51600       29.5007
4.45744       51700       29.4864
4.46606       51800       29.4721
4.47468       51900       29.4578
4.4833       52000       29.4436
4.49193       52100       29.4294
4.50055       52200       29.4152
4.50917       52300       29.4011
4.51779       52400       29.387
4.52641       52500       29.3729
4.53503       52600       29.3589
4.54366       52700       29.3449
4.55228       52800       29.3309
4.5609       52900       29.317
4.56952       53000       29.303
4.57814       53100       29.2891
4.58676       53200       29.2753
4.59539       53300       29.2614
4.60401       53400       29.2476
4.61263       53500       29.2338
4.62125       53600       29.2201
4.62987       53700       29.2064
4.6385       53800       29.1927
4.64712       53900       29.179
4.65574       54000       29.1654
4.66436       54100       29.1517
4.67298       54200       29.1382
4.6816       54300       29.1246
4.69023       54400       29.1111
4.69885       54500       29.0976
4.70747       54600       29.0841
4.71609       54700       29.0707
4.72471       54800       29.0572
4.73333       54900       29.0438
4.74196       55000       29.0305
4.75058       55100       29.0171
4.7592       55200       29.0038
4.76782       55300       28.9905
4.77644       55400       28.9773
4.78506       55500       28.9641
4.79369       55600       28.9509
4.80231       55700       28.9377
4.81093       55800       28.9245
4.81955       55900       28.9114
4.82817       56000       28.8983
4.8368       56100       28.8852
4.84542       56200       28.8722
4.85404       56300       28.8592
4.86266       56400       28.8462
4.87128       56500       28.8332
4.8799       56600       28.8202
4.88853       56700       28.8073
4.89715       56800       28.7944
4.90577       56900       28.7816
4.91439       57000       28.7687
4.92301       57100       28.7559
4.93163       57200       28.7431
4.94026       57300       28.7304
4.94888       57400       28.7176
4.9575       57500       28.7049
4.96612       57600       28.6922
4.97474       57700       28.6795
4.98336       57800       28.6669
4.99199       57900       28.6543
5.00061       58000       28.6417
5.00923       58100       28.6291
