; The collision integrals Q_{i,j}^{11} are exponential fit function obtained from 
; Transport properties of high-temperature Jupiter atmosphere components, D. Bruno, C. Catalfamo, M. Capitelli, G. Colonna, O. De Pascale et al., Phys. Plasmas 17, 112315 (2010), doi: 10.1063/1.3495980, Published by the American Institute of Physics
; 
; 
; To obtain these collision integrals, the original data (transport cross section Q^l_{i,j} or elastic collision differential cross section) are obtained from:
;
; 1) Atomic and Plasma-material Interaction data for fusion, vol 9, international atomic energy agency, Vienna 2001, section: Collision integrals of high temperature hydrogen species
; 2) C. Gorse and M. Capitelli, At. Plasma-Mater. Interact. Data Fusion 9, 75 2001.
; 
; 1 atomic unit of square distance = 2.80e-17 cm^2
; 1eV = 11604K

2.80e-17


;        E             T             Q11
;       (eV)         (K)         (a.u.)

0.0862174       1000       53.4931
0.0948391       1100       52.2103
0.103461       1200       51.0543
0.112083       1300       50.003
0.120704       1400       49.0395
0.129326       1500       48.1507
0.137948       1600       47.326
0.14657       1700       46.557
0.155191       1800       45.8367
0.163813       1900       45.1593
0.172435       2000       44.52
0.181056       2100       43.9147
0.189678       2200       43.34
0.1983       2300       42.7929
0.206922       2400       42.2709
0.215543       2500       41.7716
0.224165       2600       41.2933
0.232787       2700       40.834
0.241409       2800       40.3925
0.25003       2900       39.9672
0.258652       3000       39.5571
0.267274       3100       39.1611
0.275896       3200       38.7782
0.284517       3300       38.4076
0.293139       3400       38.0485
0.301761       3500       37.7002
0.310383       3600       37.3621
0.319004       3700       37.0336
0.327626       3800       36.7142
0.336248       3900       36.4034
0.34487       4000       36.1007
0.353491       4100       35.8058
0.362113       4200       35.5184
0.370735       4300       35.2379
0.379356       4400       34.9642
0.387978       4500       34.6969
0.3966       4600       34.4358
0.405222       4700       34.1806
0.413843       4800       33.931
0.422465       4900       33.6869
0.431087       5000       33.448
0.439709       5100       33.2142
0.44833       5200       32.9852
0.456952       5300       32.7609
0.465574       5400       32.5411
0.474196       5500       32.3257
0.482817       5600       32.1145
0.491439       5700       31.9074
0.500061       5800       31.7043
0.508683       5900       31.5049
0.517304       6000       31.3093
0.525926       6100       31.1173
0.534548       6200       30.9287
0.543169       6300       30.7435
0.551791       6400       30.5617
0.560413       6500       30.383
0.569035       6600       30.2074
0.577656       6700       30.0349
0.586278       6800       29.8653
0.5949       6900       29.6985
0.603522       7000       29.5346
0.612143       7100       29.3733
0.620765       7200       29.2147
0.629387       7300       29.0587
0.638009       7400       28.9051
0.64663       7500       28.7541
0.655252       7600       28.6054
0.663874       7700       28.459
0.672496       7800       28.3149
0.681117       7900       28.173
0.689739       8000       28.0333
0.698361       8100       27.8957
0.706983       8200       27.7602
0.715604       8300       27.6266
0.724226       8400       27.4951
0.732848       8500       27.3655
0.741469       8600       27.2377
0.750091       8700       27.1118
0.758713       8800       26.9877
0.767335       8900       26.8653
0.775956       9000       26.7447
0.784578       9100       26.6258
0.7932       9200       26.5085
0.801822       9300       26.3928
0.810443       9400       26.2787
0.819065       9500       26.1661
0.827687       9600       26.0551
0.836309       9700       25.9455
0.84493       9800       25.8374
0.853552       9900       25.7307
0.862174       10000       25.6254
0.870796       10100       25.5214
0.879417       10200       25.4188
0.888039       10300       25.3175
0.896661       10400       25.2175
0.905282       10500       25.1187
0.913904       10600       25.0212
0.922526       10700       24.9249
0.931148       10800       24.8298
0.939769       10900       24.7358
0.948391       11000       24.643
0.957013       11100       24.5512
0.965635       11200       24.4606
0.974256       11300       24.3711
0.982878       11400       24.2826
0.9915       11500       24.1951
1.00012       11600       24.1087
1.00874       11700       24.0233
1.01737       11800       23.9388
1.02599       11900       23.8553
1.03461       12000       23.7728
1.04323       12100       23.6911
1.05185       12200       23.6104
1.06047       12300       23.5306
1.0691       12400       23.4517
1.07772       12500       23.3736
1.08634       12600       23.2963
1.09496       12700       23.22
1.10358       12800       23.1444
1.1122       12900       23.0696
1.12083       13000       22.9956
1.12945       13100       22.9224
1.13807       13200       22.85
1.14669       13300       22.7783
1.15531       13400       22.7073
1.16393       13500       22.6371
1.17256       13600       22.5676
1.18118       13700       22.4988
1.1898       13800       22.4306
1.19842       13900       22.3632
1.20704       14000       22.2964
1.21567       14100       22.2303
1.22429       14200       22.1648
1.23291       14300       22.1
1.24153       14400       22.0358
1.25015       14500       21.9722
1.25877       14600       21.9092
1.2674       14700       21.8468
1.27602       14800       21.785
1.28464       14900       21.7238
1.29326       15000       21.6631
1.30188       15100       21.603
1.3105       15200       21.5435
1.31913       15300       21.4845
1.32775       15400       21.426
1.33637       15500       21.3681
1.34499       15600       21.3107
1.35361       15700       21.2538
1.36223       15800       21.1974
1.37086       15900       21.1415
1.37948       16000       21.0861
1.3881       16100       21.0311
1.39672       16200       20.9767
1.40534       16300       20.9227
1.41397       16400       20.8692
1.42259       16500       20.8161
1.43121       16600       20.7635
1.43983       16700       20.7113
1.44845       16800       20.6595
1.45707       16900       20.6082
1.4657       17000       20.5573
1.47432       17100       20.5069
1.48294       17200       20.4568
1.49156       17300       20.4071
1.50018       17400       20.3579
1.5088       17500       20.309
1.51743       17600       20.2606
1.52605       17700       20.2125
1.53467       17800       20.1648
1.54329       17900       20.1174
1.55191       18000       20.0705
1.56053       18100       20.0239
1.56916       18200       19.9776
1.57778       18300       19.9318
1.5864       18400       19.8862
1.59502       18500       19.841
1.60364       18600       19.7962
1.61227       18700       19.7517
1.62089       18800       19.7075
1.62951       18900       19.6637
1.63813       19000       19.6201
1.64675       19100       19.5769
1.65537       19200       19.534
1.664       19300       19.4915
1.67262       19400       19.4492
1.68124       19500       19.4072
1.68986       19600       19.3656
1.69848       19700       19.3242
1.7071       19800       19.2831
1.71573       19900       19.2424
1.72435       20000       19.2019
1.73297       20100       19.1617
1.74159       20200       19.1217
1.75021       20300       19.0821
1.75883       20400       19.0427
1.76746       20500       19.0036
1.77608       20600       18.9647
1.7847       20700       18.9261
1.79332       20800       18.8878
1.80194       20900       18.8497
1.81056       21000       18.8119
1.81919       21100       18.7744
1.82781       21200       18.7371
1.83643       21300       18.7
1.84505       21400       18.6632
1.85367       21500       18.6266
1.8623       21600       18.5902
1.87092       21700       18.5541
1.87954       21800       18.5182
1.88816       21900       18.4826
1.89678       22000       18.4472
1.9054       22100       18.412
1.91403       22200       18.377
1.92265       22300       18.3422
1.93127       22400       18.3077
1.93989       22500       18.2733
1.94851       22600       18.2392
1.95713       22700       18.2053
1.96576       22800       18.1716
1.97438       22900       18.1381
1.983       23000       18.1048
1.99162       23100       18.0718
2.00024       23200       18.0389
2.00886       23300       18.0062
2.01749       23400       17.9737
2.02611       23500       17.9414
2.03473       23600       17.9093
2.04335       23700       17.8773
2.05197       23800       17.8456
2.0606       23900       17.8141
2.06922       24000       17.7827
2.07784       24100       17.7515
2.08646       24200       17.7205
2.09508       24300       17.6897
2.1037       24400       17.659
2.11233       24500       17.6285
2.12095       24600       17.5982
2.12957       24700       17.5681
2.13819       24800       17.5381
2.14681       24900       17.5083
2.15543       25000       17.4787
2.16406       25100       17.4492
2.17268       25200       17.4199
2.1813       25300       17.3908
2.18992       25400       17.3618
2.19854       25500       17.333
2.20716       25600       17.3043
2.21579       25700       17.2758
2.22441       25800       17.2474
2.23303       25900       17.2192
2.24165       26000       17.1911
2.25027       26100       17.1632
2.2589       26200       17.1355
2.26752       26300       17.1079
2.27614       26400       17.0804
2.28476       26500       17.0531
2.29338       26600       17.0259
2.302       26700       16.9988
2.31063       26800       16.9719
2.31925       26900       16.9452
2.32787       27000       16.9185
2.33649       27100       16.892
2.34511       27200       16.8657
2.35373       27300       16.8395
2.36236       27400       16.8134
2.37098       27500       16.7874
2.3796       27600       16.7616
2.38822       27700       16.7359
2.39684       27800       16.7103
2.40546       27900       16.6848
2.41409       28000       16.6595
2.42271       28100       16.6343
2.43133       28200       16.6093
2.43995       28300       16.5843
2.44857       28400       16.5595
2.4572       28500       16.5348
2.46582       28600       16.5102
2.47444       28700       16.4857
2.48306       28800       16.4613
2.49168       28900       16.4371
2.5003       29000       16.413
2.50893       29100       16.389
2.51755       29200       16.3651
2.52617       29300       16.3413
2.53479       29400       16.3176
2.54341       29500       16.2941
2.55203       29600       16.2706
2.56066       29700       16.2473
2.56928       29800       16.224
2.5779       29900       16.2009
2.58652       30000       16.1779
2.59514       30100       16.155
2.60376       30200       16.1322
2.61239       30300       16.1094
2.62101       30400       16.0868
2.62963       30500       16.0643
2.63825       30600       16.0419
2.64687       30700       16.0196
2.6555       30800       15.9974
2.66412       30900       15.9753
2.67274       31000       15.9533
2.68136       31100       15.9314
2.68998       31200       15.9096
2.6986       31300       15.8879
2.70723       31400       15.8662
2.71585       31500       15.8447
2.72447       31600       15.8233
2.73309       31700       15.8019
2.74171       31800       15.7807
2.75033       31900       15.7595
2.75896       32000       15.7384
2.76758       32100       15.7175
2.7762       32200       15.6966
2.78482       32300       15.6758
2.79344       32400       15.6551
2.80206       32500       15.6344
2.81069       32600       15.6139
2.81931       32700       15.5934
2.82793       32800       15.5731
2.83655       32900       15.5528
2.84517       33000       15.5326
2.8538       33100       15.5125
2.86242       33200       15.4924
2.87104       33300       15.4725
2.87966       33400       15.4526
2.88828       33500       15.4328
2.8969       33600       15.4131
2.90553       33700       15.3935
2.91415       33800       15.3739
2.92277       33900       15.3545
2.93139       34000       15.3351
2.94001       34100       15.3158
2.94863       34200       15.2965
2.95726       34300       15.2774
2.96588       34400       15.2583
2.9745       34500       15.2393
2.98312       34600       15.2203
2.99174       34700       15.2015
3.00036       34800       15.1827
3.00899       34900       15.164
3.01761       35000       15.1453
3.02623       35100       15.1267
3.03485       35200       15.1083
3.04347       35300       15.0898
3.0521       35400       15.0715
3.06072       35500       15.0532
3.06934       35600       15.035
3.07796       35700       15.0168
3.08658       35800       14.9988
3.0952       35900       14.9807
3.10383       36000       14.9628
3.11245       36100       14.9449
3.12107       36200       14.9271
3.12969       36300       14.9094
3.13831       36400       14.8917
3.14693       36500       14.8741
3.15556       36600       14.8566
3.16418       36700       14.8391
3.1728       36800       14.8217
3.18142       36900       14.8043
3.19004       37000       14.7871
3.19866       37100       14.7698
3.20729       37200       14.7527
3.21591       37300       14.7356
3.22453       37400       14.7185
3.23315       37500       14.7016
3.24177       37600       14.6847
3.2504       37700       14.6678
3.25902       37800       14.651
3.26764       37900       14.6343
3.27626       38000       14.6176
3.28488       38100       14.601
3.2935       38200       14.5845
3.30213       38300       14.568
3.31075       38400       14.5515
3.31937       38500       14.5352
3.32799       38600       14.5188
3.33661       38700       14.5026
3.34523       38800       14.4864
3.35386       38900       14.4702
3.36248       39000       14.4541
3.3711       39100       14.4381
3.37972       39200       14.4221
3.38834       39300       14.4062
3.39696       39400       14.3903
3.40559       39500       14.3745
3.41421       39600       14.3587
3.42283       39700       14.343
3.43145       39800       14.3274
3.44007       39900       14.3118
3.4487       40000       14.2962
3.45732       40100       14.2807
3.46594       40200       14.2653
3.47456       40300       14.2499
3.48318       40400       14.2345
3.4918       40500       14.2192
3.50043       40600       14.204
3.50905       40700       14.1888
3.51767       40800       14.1737
3.52629       40900       14.1586
3.53491       41000       14.1435
3.54353       41100       14.1285
3.55216       41200       14.1136
3.56078       41300       14.0987
3.5694       41400       14.0838
3.57802       41500       14.069
3.58664       41600       14.0543
3.59526       41700       14.0396
3.60389       41800       14.0249
3.61251       41900       14.0103
3.62113       42000       13.9958
3.62975       42100       13.9813
3.63837       42200       13.9668
3.647       42300       13.9524
3.65562       42400       13.938
3.66424       42500       13.9237
3.67286       42600       13.9094
3.68148       42700       13.8951
3.6901       42800       13.8809
3.69873       42900       13.8668
3.70735       43000       13.8527
3.71597       43100       13.8386
3.72459       43200       13.8246
3.73321       43300       13.8106
3.74183       43400       13.7967
3.75046       43500       13.7828
3.75908       43600       13.769
3.7677       43700       13.7552
3.77632       43800       13.7414
3.78494       43900       13.7277
3.79356       44000       13.714
3.80219       44100       13.7004
3.81081       44200       13.6868
3.81943       44300       13.6732
3.82805       44400       13.6597
3.83667       44500       13.6463
3.8453       44600       13.6328
3.85392       44700       13.6194
3.86254       44800       13.6061
3.87116       44900       13.5928
3.87978       45000       13.5795
3.8884       45100       13.5663
3.89703       45200       13.5531
3.90565       45300       13.5399
3.91427       45400       13.5268
3.92289       45500       13.5138
3.93151       45600       13.5007
3.94013       45700       13.4877
3.94876       45800       13.4748
3.95738       45900       13.4618
3.966       46000       13.449
3.97462       46100       13.4361
3.98324       46200       13.4233
3.99186       46300       13.4105
4.00049       46400       13.3978
4.00911       46500       13.3851
4.01773       46600       13.3724
4.02635       46700       13.3598
4.03497       46800       13.3472
4.0436       46900       13.3347
4.05222       47000       13.3222
4.06084       47100       13.3097
4.06946       47200       13.2972
4.07808       47300       13.2848
4.0867       47400       13.2724
4.09533       47500       13.2601
4.10395       47600       13.2478
4.11257       47700       13.2355
4.12119       47800       13.2233
4.12981       47900       13.2111
4.13843       48000       13.1989
4.14706       48100       13.1868
4.15568       48200       13.1747
4.1643       48300       13.1626
4.17292       48400       13.1506
4.18154       48500       13.1386
4.19016       48600       13.1266
4.19879       48700       13.1147
4.20741       48800       13.1028
4.21603       48900       13.0909
4.22465       49000       13.0791
4.23327       49100       13.0672
4.2419       49200       13.0555
4.25052       49300       13.0437
4.25914       49400       13.032
4.26776       49500       13.0203
4.27638       49600       13.0087
4.285       49700       12.9971
4.29363       49800       12.9855
4.30225       49900       12.9739
4.31087       50000       12.9624
4.31949       50100       12.9509
4.32811       50200       12.9395
4.33673       50300       12.928
4.34536       50400       12.9166
4.35398       50500       12.9053
4.3626       50600       12.8939
4.37122       50700       12.8826
4.37984       50800       12.8713
4.38846       50900       12.8601
4.39709       51000       12.8489
4.40571       51100       12.8377
4.41433       51200       12.8265
4.42295       51300       12.8154
4.43157       51400       12.8043
4.4402       51500       12.7932
4.44882       51600       12.7821
4.45744       51700       12.7711
4.46606       51800       12.7601
4.47468       51900       12.7492
4.4833       52000       12.7382
4.49193       52100       12.7273
4.50055       52200       12.7164
4.50917       52300       12.7056
4.51779       52400       12.6948
4.52641       52500       12.684
4.53503       52600       12.6732
4.54366       52700       12.6625
4.55228       52800       12.6518
4.5609       52900       12.6411
4.56952       53000       12.6304
4.57814       53100       12.6198
4.58676       53200       12.6092
4.59539       53300       12.5986
4.60401       53400       12.588
4.61263       53500       12.5775
4.62125       53600       12.567
4.62987       53700       12.5565
4.6385       53800       12.5461
4.64712       53900       12.5357
4.65574       54000       12.5253
4.66436       54100       12.5149
4.67298       54200       12.5045
4.6816       54300       12.4942
4.69023       54400       12.4839
4.69885       54500       12.4736
4.70747       54600       12.4634
4.71609       54700       12.4532
4.72471       54800       12.443
4.73333       54900       12.4328
4.74196       55000       12.4227
4.75058       55100       12.4125
4.7592       55200       12.4024
4.76782       55300       12.3924
4.77644       55400       12.3823
4.78506       55500       12.3723
4.79369       55600       12.3623
4.80231       55700       12.3523
4.81093       55800       12.3424
4.81955       55900       12.3324
4.82817       56000       12.3225
4.8368       56100       12.3126
4.84542       56200       12.3028
4.85404       56300       12.2929
4.86266       56400       12.2831
4.87128       56500       12.2733
4.8799       56600       12.2636
4.88853       56700       12.2538
4.89715       56800       12.2441
4.90577       56900       12.2344
4.91439       57000       12.2247
4.92301       57100       12.2151
4.93163       57200       12.2055
4.94026       57300       12.1958
